#I/A U_Zn/µV U_Cu/µV
0.0;0;0
0.5;41;1
1.0;82;2
1.5;115;2
2.0;155;3
2.5;195;4
3.0;235;4
3.5;270;5
4.0;308;6
4.5;348;6
5.0;386;7
5.5;428;7
6.0;468;8
6.5;503;9
7.0;545;10
7.5;579;10
8.0;620;11
8.5;;12
9.0;;12
9.5;;13
10.0;;14
